##TITLE=
##JCAMP-DX=4.24
##DATA TYPE=MASS SPECTRUM
##ORIGIN=
##OWNER=
##$XXX=
##XUNITS=M/Z
##YUNITS=relative abundance
##FIRSTX=4800
##LASTX=5499.875
##FIRSTY=4.387
##LASTY=1272
##NPOINTS=5600
##PEAK TABLE=(XY..XY)
4800	9.024
4800.125	8.833
4800.25	8.494
4800.375	8.415
4800.5	8.631
4800.625	8.735
4800.75	8.501
4800.875	8.187
4801	8.016
4801.125	8.012
4801.25	8.31
4801.375	8.858
4801.5	9.193
4801.625	9.031
4801.75	8.559
4801.875	8.048
4802	7.707
4802.125	7.822
4802.25	8.586
4802.375	9.68
4802.5	10.36
4802.625	10.18
4802.75	9.436
4802.875	8.684
4803	8.116
4803.125	7.614
4803.25	7.214
4803.375	7.109
4803.5	7.287
4803.625	7.453
4803.75	7.399
4803.875	7.253
4804	7.202
4804.125	7.277
4804.25	7.504
4804.375	7.872
4804.5	8.17
4804.625	8.154
4804.75	7.775
4804.875	7.24
4805	6.949
4805.125	7.147
4805.25	7.661
4805.375	8.148
4805.5	8.271
4805.625	7.629
4805.75	6.182
4805.875	4.785
4806	4.514
4806.125	5.535
4806.25	7.168
4806.375	8.622
4806.5	9.315
4806.625	9.034
4806.75	8.069
4806.875	7.014
4807	6.357
4807.125	6.185
4807.25	6.297
4807.375	6.637
4807.5	7.291
4807.625	7.975
4807.75	8.074
4807.875	7.442
4808	6.72
4808.125	6.668
4808.25	7.504
4808.375	8.78
4808.5	9.65
4808.625	9.614
4808.75	9
4808.875	8.411
4809	8.093
4809.125	8.053
4809.25	8.252
4809.375	8.505
4809.5	8.528
4809.625	8.158
4809.75	7.548
4809.875	7.156
4810	7.319
4810.125	7.837
4810.25	8.261
4810.375	8.444
4810.5	8.454
4810.625	8.199
4810.75	7.549
4810.875	6.736
4811	6.31
4811.125	6.652
4811.25	7.575
4811.375	8.437
4811.5	8.634
4811.625	8.034
4811.75	7.014
4811.875	6.131
4812	5.824
4812.125	6.316
4812.25	7.48
4812.375	8.766
4812.5	9.524
4812.625	9.414
4812.75	8.601
4812.875	7.716
4813	7.392
4813.125	7.762
4813.25	8.538
4813.375	9.38
4813.5	10.01
4813.625	10.21
4813.75	9.861
4813.875	8.982
4814	7.943
4814.125	7.497
4814.25	8.222
4814.375	9.808
4814.5	11.22
4814.625	11.72
4814.75	11.42
4814.875	10.96
4815	10.8
4815.125	10.96
4815.25	11.28
4815.375	11.71
4815.5	12.2
4815.625	12.51
4815.75	12.37
4815.875	11.99
4816	12
4816.125	12.63
4816.25	13.25
4816.375	13.38
4816.5	13.24
4816.625	12.97
4816.75	12.29
4816.875	11.24
4817	10.46
4817.125	10.54
4817.25	11.42
4817.375	12.47
4817.5	13.05
4817.625	12.96
4817.75	12.42
4817.875	11.66
4818	10.77
4818.125	9.97
4818.25	9.684
4818.375	9.986
4818.5	10.31
4818.625	10.04
4818.75	9.194
4818.875	8.243
4819	7.538
4819.125	7.15
4819.25	6.991
4819.375	7.024
4819.5	7.328
4819.625	7.788
4819.75	7.988
4819.875	7.726
4820	7.328
4820.125	7.222
4820.25	7.468
4820.375	7.793
4820.5	7.835
4820.625	7.373
4820.75	6.568
4820.875	5.994
4821	6.199
4821.125	7.216
4821.25	8.562
4821.375	9.54
4821.5	9.561
4821.625	8.547
4821.75	7.095
4821.875	6.042
4822	5.983
4822.125	7.144
4822.25	9.241
4822.375	11.41
4822.5	12.77
4822.625	13.1
4822.75	12.66
4822.875	11.61
4823	10.43
4823.125	10.13
4823.25	11.36
4823.375	13.56
4823.5	15.36
4823.625	15.71
4823.75	14.63
4823.875	13.07
4824	12.06
4824.125	12.07
4824.25	12.95
4824.375	14.15
4824.5	14.82
4824.625	14.39
4824.75	13.25
4824.875	12.32
4825	11.88
4825.125	11.68
4825.25	11.71
4825.375	11.95
4825.5	11.89
4825.625	11.18
4825.75	10.2
4825.875	9.571
4826	9.434
4826.125	9.639
4826.25	10.23
4826.375	11.24
4826.5	11.99
4826.625	11.57
4826.75	9.96
4826.875	8.108
4827	6.911
4827.125	6.684
4827.25	7.224
4827.375	8.024
4827.5	8.602
4827.625	8.784
4827.75	8.66
4827.875	8.4
4828	8.244
4828.125	8.478
4828.25	9.163
4828.375	9.973
4828.5	10.43
4828.625	10.34
4828.75	9.963
4828.875	9.739
4829	10.18
4829.125	11.67
4829.25	14.03
4829.375	16.33
4829.5	17.48
4829.625	16.98
4829.75	15.58
4829.875	14.82
4830	15.77
4830.125	18.46
4830.25	22.27
4830.375	26.19
4830.5	28.99
4830.625	29.86
4830.75	28.89
4830.875	27.15
4831	26.22
4831.125	27.23
4831.25	30.06
4831.375	33.45
4831.5	35.75
4831.625	35.58
4831.75	32.63
4831.875	28.3
4832	25.19
4832.125	25.23
4832.25	28.07
4832.375	31.74
4832.5	34.58
4832.625	35.59
4832.75	34.04
4832.875	30.29
4833	26.24
4833.125	24.02
4833.25	24.31
4833.375	26
4833.5	27.21
4833.625	26.59
4833.75	24.05
4833.875	20.66
4834	17.8
4834.125	16.44
4834.25	16.59
4834.375	17.45
4834.5	17.97
4834.625	17.57
4834.75	16.33
4834.875	14.76
4835	13.44
4835.125	12.74
4835.25	12.6
4835.375	12.56
4835.5	12.1
4835.625	11.14
4835.75	10.04
4835.875	9.13
4836	8.555
4836.125	8.425
4836.25	8.733
4836.375	9.254
4836.5	9.686
4836.625	9.651
4836.75	8.888
4836.875	7.654
4837	6.55
4837.125	6.031
4837.25	6.247
4837.375	6.955
4837.5	7.599
4837.625	7.801
4837.75	7.568
4837.875	7.042
4838	6.526
4838.125	6.461
4838.25	6.939
4838.375	7.551
4838.5	7.899
4838.625	7.877
4838.75	7.503
4838.875	6.925
4839	6.543
4839.125	6.681
4839.25	7.141
4839.375	7.385
4839.5	7.136
4839.625	6.667
4839.75	6.383
4839.875	6.25
4840	6.041
4840.125	5.881
4840.25	6.057
4840.375	6.593
4840.5	7.243
4840.625	7.64
4840.75	7.531
4840.875	7.061
4841	6.676
4841.125	6.686
4841.25	7.064
4841.375	7.533
4841.5	7.763
4841.625	7.625
4841.75	7.224
4841.875	6.714
4842	6.33
4842.125	6.437
4842.25	7.203
4842.375	8.337
4842.5	9.232
4842.625	9.341
4842.75	8.602
4842.875	7.586
4843	7.005
4843.125	7.171
4843.25	8.061
4843.375	9.404
4843.5	10.58
4843.625	10.96
4843.75	10.42
4843.875	9.378
4844	8.86
4844.125	9.903
4844.25	12.5
4844.375	15.33
4844.5	17
4844.625	17.24
4844.75	16.62
4844.875	15.78
4845	15.29
4845.125	16.01
4845.25	18.39
4845.375	21.48
4845.5	23.58
4845.625	23.94
4845.75	23.02
4845.875	21.53
4846	20.26
4846.125	20.21
4846.25	21.7
4846.375	23.9
4846.5	25.59
4846.625	25.98
4846.75	24.74
4846.875	22.2
4847	19.59
4847.125	18.32
4847.25	18.9
4847.375	20.89
4847.5	23.19
4847.625	24.3
4847.75	23.32
4847.875	20.64
4848	17.58
4848.125	15.64
4848.25	15.77
4848.375	17.43
4848.5	18.77
4848.625	18.35
4848.75	16.38
4848.875	14.1
4849	12.42
4849.125	11.5
4849.25	10.99
4849.375	10.6
4849.5	10.41
4849.625	10.45
4849.75	10.27
4849.875	9.664
4850	9.161
4850.125	9.281
4850.25	9.76
4850.375	9.942
4850.5	9.606
4850.625	9.17
4850.75	9.089
4850.875	9.261
4851	9.26
4851.125	8.913
4851.25	8.469
4851.375	8.225
4851.5	8.112
4851.625	7.926
4851.75	7.702
4851.875	7.49
4852	7.213
4852.125	6.949
4852.25	6.962
4852.375	7.337
4852.5	7.807
4852.625	7.973
4852.75	7.664
4852.875	7.021
4853	6.33
4853.125	5.929
4853.25	6.079
4853.375	6.778
4853.5	7.698
4853.625	8.346
4853.75	8.328
4853.875	7.702
4854	7.071
4854.125	7.012
4854.25	7.419
4854.375	7.728
4854.5	7.714
4854.625	7.668
4854.75	7.647
4854.875	7.241
4855	6.532
4855.125	6.343
4855.25	7.021
4855.375	7.815
4855.5	7.85
4855.625	7.14
4855.75	6.356
4855.875	5.997
4856	6.094
4856.125	6.449
4856.25	6.84
4856.375	7.096
4856.5	7.074
4856.625	6.731
4856.75	6.306
4856.875	6.109
4857	6.037
4857.125	5.805
4857.25	5.692
4857.375	6.28
4857.5	7.45
4857.625	8.329
4857.75	8.231
4857.875	7.302
4858	6.28
4858.125	5.802
4858.25	5.921
4858.375	6.165
4858.5	6.054
4858.625	5.661
4858.75	5.454
4858.875	5.586
4859	5.85
4859.125	6.205
4859.25	6.745
4859.375	7.305
4859.5	7.509
4859.625	7.136
4859.75	6.353
4859.875	5.592
4860	5.193
4860.125	5.239
4860.25	5.697
4860.375	6.41
4860.5	6.945
4860.625	6.839
4860.75	6.136
4860.875	5.448
4861	5.333
4861.125	5.815
4861.25	6.557
4861.375	7.203
4861.5	7.462
4861.625	7.12
4861.75	6.234
4861.875	5.24
4862	4.702
4862.125	4.934
4862.25	5.841
4862.375	6.911
4862.5	7.431
4862.625	7.08
4862.75	6.241
4862.875	5.452
4863	4.836
4863.125	4.425
4863.25	4.462
4863.375	5.022
4863.5	5.8
4863.625	6.449
4863.75	6.785
4863.875	6.744
4864	6.412
4864.125	6.048
4864.25	5.869
4864.375	5.927
4864.5	6.23
4864.625	6.66
4864.75	6.904
4864.875	6.842
4865	6.718
4865.125	6.757
4865.25	6.907
4865.375	7.046
4865.5	7.12
4865.625	7.022
4865.75	6.539
4865.875	5.692
4866	5.003
4866.125	5.037
4866.25	5.64
4866.375	6.098
4866.5	6.062
4866.625	5.721
4866.75	5.285
4866.875	4.878
4867	4.689
4867.125	4.917
4867.25	5.575
4867.375	6.27
4867.5	6.43
4867.625	5.98
4867.75	5.439
4867.875	5.297
4868	5.658
4868.125	6.35
4868.25	7.113
4868.375	7.823
4868.5	8.388
4868.625	8.496
4868.75	8.025
4868.875	7.467
4869	7.366
4869.125	7.697
4869.25	8.107
4869.375	8.35
4869.5	8.306
4869.625	7.956
4869.75	7.51
4869.875	7.226
4870	7.24
4870.125	7.724
4870.25	8.593
4870.375	9.225
4870.5	9.226
4870.625	8.899
4870.75	8.658
4870.875	8.669
4871	8.915
4871.125	9.281
4871.25	9.823
4871.375	10.68
4871.5	11.55
4871.625	11.77
4871.75	10.94
4871.875	9.406
4872	8.132
4872.125	7.901
4872.25	8.582
4872.375	9.477
4872.5	10.05
4872.625	9.946
4872.75	9.019
4872.875	7.85
4873	7.458
4873.125	8.174
4873.25	9.35
4873.375	10.2
4873.5	10.39
4873.625	9.817
4873.75	8.56
4873.875	7.178
4874	6.51
4874.125	6.879
4874.25	7.985
4874.375	9.29
4874.5	10.1
4874.625	9.975
4874.75	9.266
4874.875	8.582
4875	8.155
4875.125	7.886
4875.25	7.655
4875.375	7.459
4875.5	7.283
4875.625	6.981
4875.75	6.495
4875.875	6.053
4876	5.94
4876.125	6.187
4876.25	6.493
4876.375	6.467
4876.5	6.129
4876.625	5.953
4876.75	6.115
4876.875	6.161
4877	5.796
4877.125	5.49
4877.25	5.786
4877.375	6.393
4877.5	6.6
4877.625	6.217
4877.75	5.63
4877.875	5.206
4878	5.051
4878.125	5.162
4878.25	5.458
4878.375	5.714
4878.5	5.77
4878.625	5.646
4878.75	5.392
4878.875	5.132
4879	5.153
4879.125	5.63
4879.25	6.327
4879.375	6.766
4879.5	6.661
4879.625	6.143
4879.75	5.574
4879.875	5.205
4880	5.089
4880.125	5.23
4880.25	5.584
4880.375	6.035
4880.5	6.543
4880.625	7.075
4880.75	7.398
4880.875	7.329
4881	6.891
4881.125	6.133
4881.25	5.334
4881.375	5.041
4881.5	5.323
4881.625	5.56
4881.75	5.37
4881.875	5.141
4882	5.419
4882.125	6.18
4882.25	6.929
4882.375	7.354
4882.5	7.64
4882.625	7.944
4882.75	7.905
4882.875	7.2
4883	6.28
4883.125	5.961
4883.25	6.537
4883.375	7.615
4883.5	8.564
4883.625	8.93
4883.75	8.612
4883.875	7.881
4884	7.164
4884.125	6.763
4884.25	6.75
4884.375	6.938
4884.5	7.064
4884.625	7.044
4884.75	6.929
4884.875	6.882
4885	7.167
4885.125	7.85
4885.25	8.607
4885.375	9.034
4885.5	9.092
4885.625	9.121
4885.75	9.336
4885.875	9.596
4886	9.907
4886.125	10.49
4886.25	11.19
4886.375	11.71
4886.5	12.01
4886.625	12.14
4886.75	12.01
4886.875	11.66
4887	11.25
4887.125	10.98
4887.25	11.07
4887.375	11.58
4887.5	12.25
4887.625	12.72
4887.75	12.75
4887.875	12.3
4888	11.67
4888.125	11.39
4888.25	11.72
4888.375	12.41
4888.5	12.95
4888.625	12.92
4888.75	12.12
4888.875	10.75
4889	9.498
4889.125	9.02
4889.25	9.377
4889.375	10.15
4889.5	10.88
4889.625	11.22
4889.75	10.91
4889.875	10.03
4890	9.235
4890.125	9.091
4890.25	9.489
4890.375	9.938
4890.5	10.08
4890.625	9.806
4890.75	9.283
4890.875	8.864
4891	8.608
4891.125	8.262
4891.25	7.76
4891.375	7.39
4891.5	7.457
4891.625	7.893
4891.75	8.277
4891.875	8.271
4892	7.911
4892.125	7.464
4892.25	7.209
4892.375	7.293
4892.5	7.579
4892.625	7.745
4892.75	7.64
4892.875	7.303
4893	6.787
4893.125	6.257
4893.25	5.989
4893.375	6.046
4893.5	6.244
4893.625	6.433
4893.75	6.5
4893.875	6.327
4894	6.013
4894.125	5.865
4894.25	6.073
4894.375	6.574
4894.5	7.128
4894.625	7.463
4894.75	7.449
4894.875	7.146
4895	6.764
4895.125	6.616
4895.25	6.841
4895.375	7.107
4895.5	6.928
4895.625	6.306
4895.75	5.687
4895.875	5.447
4896	5.683
4896.125	6.279
4896.25	6.904
4896.375	7.2
4896.5	7.136
4896.625	6.941
4896.75	6.676
4896.875	6.27
4897	5.92
4897.125	6.031
4897.25	6.751
4897.375	7.67
4897.5	8.086
4897.625	7.653
4897.75	6.645
4897.875	5.551
4898	4.715
4898.125	4.387
4898.25	4.719
4898.375	5.6
4898.5	6.698
4898.625	7.628
4898.75	8.046
4898.875	7.791
4899	7.004
4899.125	6.051
4899.25	5.374
4899.375	5.296
4899.5	5.781
4899.625	6.478
4899.75	7.006
4899.875	7.144
4900	6.943
4900.125	6.743
4900.25	6.848
4900.375	7.13
4900.5	7.218
4900.625	7.025
4900.75	6.797
4900.875	6.805
4901	7.145
4901.125	7.652
4901.25	8.04
4901.375	8.201
4901.5	8.217
4901.625	8.144
4901.75	7.834
4901.875	7.028
4902	5.858
4902.125	4.995
4902.25	5.01
4902.375	5.925
4902.5	7.355
4902.625	8.564
4902.75	8.765
4902.875	7.983
4903	7.114
4903.125	6.803
4903.25	7.018
4903.375	7.659
4903.5	8.589
4903.625	9.231
4903.75	9.046
4903.875	8.314
4904	7.731
4904.125	7.476
4904.25	7.346
4904.375	7.453
4904.5	8.022
4904.625	8.761
4904.75	9.021
4904.875	8.516
4905	7.583
4905.125	6.781
4905.25	6.45
4905.375	6.667
4905.5	7.276
4905.625	7.833
4905.75	7.887
4905.875	7.431
4906	6.828
4906.125	6.424
4906.25	6.406
4906.375	6.705
4906.5	6.957
4906.625	6.86
4906.75	6.484
4906.875	6.059
4907	5.735
4907.125	5.63
4907.25	5.726
4907.375	5.776
4907.5	5.65
4907.625	5.525
4907.75	5.55
4907.875	5.698
4908	5.921
4908.125	6.11
4908.25	6.161
4908.375	6.184
4908.5	6.347
4908.625	6.64
4908.75	6.911
4908.875	7.013
4909	7.017
4909.125	7.123
4909.25	7.253
4909.375	7.14
4909.5	6.746
4909.625	6.216
4909.75	5.716
4909.875	5.404
4910	5.383
4910.125	5.691
4910.25	6.347
4910.375	7.283
4910.5	8.075
4910.625	8.019
4910.75	7.002
4910.875	5.879
4911	5.489
4911.125	5.94
4911.25	6.933
4911.375	8.008
4911.5	8.546
4911.625	8.142
4911.75	7.049
4911.875	6.032
4912	5.65
4912.125	5.84
4912.25	6.396
4912.375	7.306
4912.5	8.27
4912.625	8.568
4912.75	7.87
4912.875	6.744
4913	6.038
4913.125	6.033
4913.25	6.468
4913.375	7.025
4913.5	7.492
4913.625	7.735
4913.75	7.714
4913.875	7.452
4914	7.077
4914.125	6.823
4914.25	6.897
4914.375	7.358
4914.5	7.91
4914.625	8.116
4914.75	8.136
4914.875	8.469
4915	8.936
4915.125	8.942
4915.25	8.465
4915.375	7.927
4915.5	7.5
4915.625	7.066
4915.75	6.605
4915.875	6.263
4916	6.235
4916.125	6.668
4916.25	7.433
4916.375	8.059
4916.5	8.133
4916.625	7.649
4916.75	6.895
4916.875	6.184
4917	5.797
4917.125	5.996
4917.25	6.795
4917.375	7.844
4917.5	8.703
4917.625	9.099
4917.75	8.955
4917.875	8.401
4918	7.853
4918.125	7.839
4918.25	8.505
4918.375	9.453
4918.5	10.18
4918.625	10.51
4918.75	10.59
4918.875	10.62
4919	10.74
4919.125	11.15
4919.25	12
4919.375	13.08
4919.5	13.9
4919.625	13.86
4919.75	12.8
4919.875	11.46
4920	10.85
4920.125	11.15
4920.25	11.69
4920.375	11.96
4920.5	11.97
4920.625	12.01
4920.75	11.99
4920.875	11.46
4921	10.54
4921.125	10.04
4921.25	10.44
4921.375	11.36
4921.5	12.11
4921.625	12.14
4921.75	11.33
4921.875	10.32
4922	10.23
4922.125	11.6
4922.25	13.98
4922.375	16.55
4922.5	18.57
4922.625	19.3
4922.75	18.32
4922.875	15.97
4923	13.23
4923.125	11.02
4923.25	9.651
4923.375	8.948
4923.5	8.745
4923.625	8.96
4923.75	9.198
4923.875	9.043
4924	8.899
4924.125	9.752
4924.25	11.9
4924.375	14.48
4924.5	16.39
4924.625	17.2
4924.75	17.09
4924.875	16.35
4925	15.16
4925.125	13.69
4925.25	12.22
4925.375	11.1
4925.5	10.47
4925.625	10.14
4925.75	10.07
4925.875	10.59
4926	12.06
4926.125	14.44
4926.25	17.12
4926.375	19.26
4926.5	20.21
4926.625	19.89
4926.75	18.73
4926.875	17.4
4927	16.63
4927.125	16.97
4927.25	18.24
4927.375	19.55
4927.5	20.12
4927.625	19.79
4927.75	18.71
4927.875	17.18
4928	15.98
4928.125	15.98
4928.25	17.55
4928.375	20.27
4928.5	23.03
4928.625	24.73
4928.75	24.99
4928.875	24.12
4929	22.59
4929.125	20.96
4929.25	19.89
4929.375	19.64
4929.5	19.8
4929.625	19.58
4929.75	18.59
4929.875	17.25
4930	16.25
4930.125	16.06
4930.25	16.6
4930.375	17.17
4930.5	17.19
4930.625	16.76
4930.75	16.12
4930.875	15.27
4931	14.34
4931.125	13.76
4931.25	13.84
4931.375	14.42
4931.5	14.96
4931.625	14.73
4931.75	13.54
4931.875	12.04
4932	11.04
4932.125	10.75
4932.25	10.93
4932.375	11.33
4932.5	11.71
4932.625	11.76
4932.75	11.13
4932.875	9.913
4933	8.816
4933.125	8.45
4933.25	8.668
4933.375	8.922
4933.5	8.884
4933.625	8.555
4933.75	8.085
4933.875	7.624
4934	7.298
4934.125	7.188
4934.25	7.318
4934.375	7.684
4934.5	8.129
4934.625	8.309
4934.75	8.065
4934.875	7.7
4935	7.741
4935.125	8.571
4935.25	10.04
4935.375	11.36
4935.5	11.86
4935.625	11.54
4935.75	11.09
4935.875	11.39
4936	13
4936.125	15.84
4936.25	19.31
4936.375	22.51
4936.5	24.22
4936.625	23.77
4936.75	22.04
4936.875	20.88
4937	21.36
4937.125	23.62
4937.25	27.42
4937.375	31.86
4937.5	34.95
4937.625	34.87
4937.75	31.75
4937.875	27.74
4938	25.39
4938.125	26.03
4938.25	29.29
4938.375	33.4
4938.5	36.11
4938.625	35.76
4938.75	32.49
4938.875	28.22
4939	24.94
4939.125	23.52
4939.25	23.85
4939.375	25.08
4939.5	25.79
4939.625	25.1
4939.75	23.36
4939.875	21.58
4940	20.52
4940.125	20.34
4940.25	20.52
4940.375	20.29
4940.5	19.6
4940.625	18.99
4940.75	18.64
4940.875	18.18
4941	17.56
4941.125	17.22
4941.25	17.55
4941.375	18.57
4941.5	19.92
4941.625	20.93
4941.75	20.79
4941.875	19.36
4942	17.57
4942.125	16.7
4942.25	17.1
4942.375	18.17
4942.5	19.26
4942.625	19.88
4942.75	19.59
4942.875	18.68
4943	18.6
4943.125	20.75
4943.25	24.81
4943.375	28.99
4943.5	31.77
4943.625	32.79
4943.75	32.46
4943.875	31.76
4944	32.4
4944.125	35.86
4944.25	42.04
4944.375	49.44
4944.5	55.84
4944.625	58.94
4944.75	57.74
4944.875	53.88
4945	50.84
4945.125	51.85
4945.25	58.09
4945.375	67.53
4945.5	75.64
4945.625	78.26
4945.75	74.44
4945.875	66.96
4946	60.24
4946.125	57.93
4946.25	61.51
4946.375	68.98
4946.5	75.24
4946.625	76.15
4946.75	71.95
4946.875	65.55
4947	59.7
4947.125	56.37
4947.25	56.37
4947.375	58.49
4947.5	60.05
4947.625	59.04
4947.75	55.51
4947.875	50.64
4948	45.39
4948.125	40.86
4948.25	38.8
4948.375	40.22
4948.5	43.47
4948.625	44.85
4948.75	42
4948.875	35.98
4949	29.82
4949.125	25.91
4949.25	24.96
4949.375	26.15
4949.5	27.92
4949.625	28.7
4949.75	27.66
4949.875	25.01
4950	21.76
4950.125	19.01
4950.25	17.39
4950.375	16.8
4950.5	16.36
4950.625	15.27
4950.75	13.7
4950.875	12.28
4951	11.33
4951.125	11.01
4951.25	11.39
4951.375	12.03
4951.5	12.12
4951.625	11.23
4951.75	9.665
4951.875	8.225
4952	7.61
4952.125	8.054
4952.25	9.268
4952.375	10.64
4952.5	11.61
4952.625	11.81
4952.75	11.07
4952.875	9.618
4953	8.178
4953.125	7.353
4953.25	7.233
4953.375	7.644
4953.5	8.261
4953.625	8.702
4953.75	8.806
4953.875	8.584
4954	8.09
4954.125	7.642
4954.25	7.647
4954.375	8.024
4954.5	8.334
4954.625	8.389
4954.75	8.3
4954.875	8.126
4955	7.891
4955.125	7.853
4955.25	8.311
4955.375	9.037
4955.5	9.376
4955.625	9.038
4955.75	8.437
4955.875	8.178
4956	8.409
4956.125	8.72
4956.25	8.731
4956.375	8.673
4956.5	8.979
4956.625	9.463
4956.75	9.615
4956.875	9.498
4957	9.671
4957.125	10.58
4957.25	12.29
4957.375	14.42
4957.5	16.28
4957.625	17.25
4957.75	17.4
4957.875	17.88
4958	20.21
4958.125	24.99
4958.25	31.67
4958.375	39.18
4958.5	46.25
4958.625	51.36
4958.75	53.98
4958.875	55.86
4959	60.17
4959.125	68.79
4959.25	80.66
4959.375	92.65
4959.5	101.4
4959.625	104.7
4959.75	102.7
4959.875	98.66
4960	98.22
4960.125	106
4960.25	121.5
4960.375	138.4
4960.5	150.1
4960.625	153.4
4960.75	149
4960.875	139.9
4961	130.1
4961.125	125.2
4961.25	128.7
4961.375	138.3
4961.5	147
4961.625	149.2
4961.75	143.3
4961.875	131.4
4962	118.7
4962.125	110.7
4962.25	109.7
4962.375	112.9
4962.5	115.5
4962.625	113.8
4962.75	106.8
4962.875	96.07
4963	84.65
4963.125	76.02
4963.25	72.5
4963.375	72.63
4963.5	72.22
4963.625	68.59
4963.75	62.26
4963.875	54.59
4964	46.93
4964.125	41.48
4964.25	39.76
4964.375	40.68
4964.5	41.8
4964.625	41.47
4964.75	38.93
4964.875	34.33
4965	29.12
4965.125	24.98
4965.25	22.51
4965.375	21.54
4965.5	21.65
4965.625	21.89
4965.75	21.26
4965.875	19.62
4966	17.81
4966.125	16.73
4966.25	16.63
4966.375	17
4966.5	16.94
4966.625	15.85
4966.75	13.93
4966.875	11.81
4967	10.07
4967.125	9.186
4967.25	9.448
4967.375	10.56
4967.5	11.69
4967.625	12.14
4967.75	11.86
4967.875	11.11
4968	10.18
4968.125	9.603
4968.25	9.794
4968.375	10.38
4968.5	10.58
4968.625	10.17
4968.75	9.571
4968.875	9.33
4969	9.544
4969.125	9.81
4969.25	9.794
4969.375	9.654
4969.5	9.594
4969.625	9.461
4969.75	9.047
4969.875	8.42
4970	7.928
4970.125	8.025
4970.25	8.907
4970.375	10.27
4970.5	11.52
4970.625	12.18
4970.75	12.25
4970.875	12.14
4971	12.07
4971.125	12.04
4971.25	12.09
4971.375	12.23
4971.5	12.14
4971.625	11.69
4971.75	11.12
4971.875	10.62
4972	10.23
4972.125	10.16
4972.25	10.65
4972.375	11.45
4972.5	11.98
4972.625	11.85
4972.75	11.15
4972.875	10.2
4973	9.344
4973.125	9.026
4973.25	9.466
4973.375	10.34
4973.5	11.03
4973.625	11.35
4973.75	11.58
4973.875	11.89
4974	12.07
4974.125	11.96
4974.25	11.57
4974.375	11.04
4974.5	10.57
4974.625	10.24
4974.75	9.973
4974.875	9.804
4975	9.856
4975.125	10.17
4975.25	10.6
4975.375	10.91
4975.5	10.85
4975.625	10.29
4975.75	9.537
4975.875	9.081
4976	8.994
4976.125	9.053
4976.25	9.354
4976.375	10.11
4976.5	11.05
4976.625	11.52
4976.75	11.09
4976.875	9.919
4977	8.647
4977.125	8.036
4977.25	8.357
4977.375	9.203
4977.5	9.941
4977.625	10.29
4977.75	10.28
4977.875	9.986
4978	9.483
4978.125	9.001
4978.25	8.647
